Phosphino (PH2)	H2P1(g)
T(K)	Cp	S	-[G-H(Tr)]/T	H-H(Tr)	delta-f H	delta-f G	log Kf
 100.00  33.258 175.957 -242.760        -6.680   129.199         123.444       -64.479
 200.00  33.549 199.055 -215.787        -3.347   127.574         118.072       -30.837
 250.00  34.075 206.593 -213.221        -1.657   126.743         115.947       -24.225
 298.15  34.774 212.652 -212.652         0.000   125.938         113.745       -19.927
 300.00  34.804 212.868 -212.653         0.064   125.905         113.670       -19.791
 350.00  35.641 218.294 -213.080         1.825   124.591         111.849       -16.692
 400.00  36.535 223.112 -214.038         3.629   123.312         110.052       -14.371
 450.00  37.468 227.468 -215.292         5.479   122.384         108.468       -12.590
 500.00  38.430 231.466 -216.712         7.377   121.504         106.951       -11.173
 600.00  40.400 238.646 -219.783        11.318   119.884         104.195        -9.071
 700.00  42.343 245.020 -222.941        15.456   118.451         101.696        -7.589
 800.00  44.169 250.796 -226.067        19.783   117.193          99.390        -6.489
 900.00  45.820 256.095 -229.113        24.284   116.087          97.232        -5.643
1000.00  47.278 261.000 -232.060        28.940   115.106          95.191        -4.972
1100.00  48.548 265.567 -234.901        33.733   114.228          93.243        -4.428
1200.00  49.645 269.839 -237.636        38.644    49.856          92.450        -4.024
1300.00  50.590 273.851 -240.269        43.657    49.890          95.998        -3.857
1400.00  51.403 277.631 -242.804        48.758    49.965          99.544        -3.714
1500.00  52.104 281.202 -245.246        53.934    50.066         103.079        -3.589
1600.00  52.711 284.584 -247.600        59.175    50.186         106.612        -3.480
1700.00  53.238 287.796 -249.871        64.473    50.316         110.133        -3.384
1800.00  53.696 290.852 -252.063        69.821    50.454         113.649        -3.298
1900.00  54.097 293.767 -254.182        75.211    50.593         117.156        -3.221
2000.00  54.450 296.551 -256.231        80.638    50.729         120.656        -3.151
2100.00  54.760 299.215 -258.215        86.099    50.860         124.149        -3.088
2200.00  55.035 301.769 -260.137        91.589    50.986         127.634        -3.030
2300.00  55.280 304.221 -262.001        97.105    51.103         131.118        -2.978
2400.00  55.498 306.578 -263.810       102.644    51.212         134.592        -2.929
2500.00  55.693 308.848 -265.566       108.204    51.311         138.066        -2.885
2600.00  55.869 311.036 -267.273       113.782    51.399         141.533        -2.843
2700.00  56.027 313.147 -268.933       119.377    51.476         144.997        -2.805
2800.00  56.169 315.187 -270.549       124.987    51.541         148.461        -2.770
2900.00  56.299 317.161 -272.122       130.611    51.594         151.925        -2.736
3000.00  56.417 319.071 -273.656       136.247    51.634         155.380        -2.705
3100.00  56.524 320.923 -275.151       141.894    51.661         158.838        -2.676
3200.00  56.622 322.719 -276.609       147.551    51.674         162.296        -2.649
3300.00  56.712 324.463 -278.033       153.218    51.674         165.753        -2.624
3400.00  56.795 326.157 -279.424       158.893    51.661         169.210        -2.600
3500.00  56.871 327.804 -280.783       164.577    51.634         172.667        -2.577
3600.00  56.941 329.408 -282.111       170.267    51.592         176.126        -2.555
3700.00  57.005 330.969 -283.411       175.965    51.538         179.584        -2.535
3800.00  57.065 332.490 -284.682       181.668    51.467         183.048        -2.516
3900.00  57.121 333.973 -285.927       187.377    51.382         186.509        -2.498
4000.00  57.172 335.419 -287.146       193.092    51.283         189.978        -2.481
4100.00  57.220 336.832 -288.341       198.812    51.168         193.449        -2.465
4200.00  57.265 338.211 -289.512       204.536    51.039         196.922        -2.449
4300.00  57.307 339.559 -290.660       210.265    50.894         200.392        -2.434
4400.00  57.346 340.877 -291.787       215.997    50.734         203.871        -2.420
4500.00  57.383 342.166 -292.892       221.734    50.560         207.352        -2.407
4600.00  57.417 343.428 -293.977       227.474    50.370         210.840        -2.394
4700.00  57.449 344.663 -295.042       233.217    50.165         214.336        -2.382
4800.00  57.480 345.873 -296.089       238.964    49.947         217.824        -2.370
4900.00  57.508 347.058 -297.117       244.713    49.713         221.326        -2.359
5000.00  57.535 348.220 -298.127       250.465    49.465         224.833        -2.349
5100.00  57.560 349.360 -299.121       256.220    49.203         228.295        -2.338
5200.00  57.584 350.478 -300.098       261.977    48.930         231.852        -2.329
5300.00  57.607 351.575 -301.059       267.737    48.643         235.333        -2.319
5400.00  57.628 352.652 -302.004       273.499    48.344         238.901        -2.311
5500.00  57.649 353.710 -302.935       279.263    48.035         242.390        -2.302
5600.00  57.668 354.749 -303.851       285.028    47.713         245.968        -2.294
5700.00  57.686 355.769 -304.753       290.796    47.382         249.477        -2.286
5800.00  57.703 356.773 -305.641       296.566    47.043         253.062        -2.279
5900.00  57.720 357.759 -306.516       302.337    46.694         256.582        -2.272
6000.00  57.736 358.730 -307.378       308.110    46.338         260.182        -2.265
